## w(eV)         sigma(Sm^-1)     kappa(W(mK)^-1)        L12/e(Am^-1)      L22/e^2(Wm^-1)
    0.01              515796              765.11        -1.00552e+07         2.68503e+08
    0.03              515792             765.104        -1.00552e+07         2.68503e+08
    0.05              515785             765.092        -1.00552e+07         2.68503e+08
    0.07              515775             765.073        -1.00551e+07         2.68503e+08
    0.09              515761             765.049         -1.0055e+07         2.68503e+08
    0.11              515744             765.019        -1.00549e+07         2.68503e+08
    0.13              515723             764.983        -1.00548e+07         2.68503e+08
    0.15              515699              764.94        -1.00547e+07         2.68503e+08
    0.17              515671             764.892        -1.00545e+07         2.68503e+08
    0.19              515639             764.838        -1.00544e+07         2.68503e+08
    0.21              515605             764.777        -1.00542e+07         2.68503e+08
    0.23              515566             764.711        -1.00539e+07         2.68503e+08
    0.25              515525             764.638        -1.00537e+07         2.68503e+08
    0.27              515479             764.559        -1.00535e+07         2.68502e+08
    0.29              515431             764.475        -1.00532e+07         2.68502e+08
    0.31              515379             764.384        -1.00529e+07         2.68502e+08
    0.33              515323             764.287        -1.00526e+07         2.68502e+08
    0.35              515264             764.184        -1.00522e+07         2.68502e+08
    0.37              515201             764.076        -1.00519e+07         2.68501e+08
    0.39              515135             763.961        -1.00515e+07         2.68501e+08
    0.41              515065             763.839        -1.00511e+07         2.68501e+08
    0.43              514992             763.712        -1.00507e+07           2.685e+08
    0.45              514916             763.579        -1.00503e+07           2.685e+08
    0.47              514836              763.44        -1.00498e+07           2.685e+08
    0.49              514752             763.295        -1.00494e+07         2.68499e+08
    0.51              514665             763.143        -1.00489e+07         2.68499e+08
    0.53              514575             762.986        -1.00483e+07         2.68498e+08
    0.55              514481             762.822        -1.00478e+07         2.68498e+08
    0.57              514383             762.653        -1.00472e+07         2.68497e+08
    0.59              514283             762.477        -1.00467e+07         2.68496e+08
    0.61              514178             762.295        -1.00461e+07         2.68496e+08
    0.63              514070             762.107        -1.00455e+07         2.68495e+08
    0.65              513959             761.913        -1.00448e+07         2.68494e+08
    0.67              513844             761.713        -1.00442e+07         2.68493e+08
    0.69              513726             761.507        -1.00435e+07         2.68492e+08
    0.71              513604             761.295        -1.00428e+07         2.68491e+08
    0.73              513479             761.076         -1.0042e+07          2.6849e+08
    0.75              513350             760.852        -1.00413e+07         2.68488e+08
    0.77              513217             760.621        -1.00405e+07         2.68487e+08
    0.79              513082             760.385        -1.00397e+07         2.68486e+08
    0.81              512942             760.142        -1.00389e+07         2.68484e+08
    0.83              512800             759.893        -1.00381e+07         2.68482e+08
    0.85              512653             759.638        -1.00372e+07         2.68481e+08
    0.87              512504             759.377        -1.00363e+07         2.68479e+08
    0.89              512350              759.11        -1.00354e+07         2.68477e+08
    0.91              512194             758.836        -1.00345e+07         2.68475e+08
    0.93              512033             758.556        -1.00336e+07         2.68473e+08
    0.95              511870             758.271        -1.00326e+07          2.6847e+08
    0.97              511703             757.979        -1.00316e+07         2.68468e+08
    0.99              511532             757.681        -1.00306e+07         2.68465e+08
    1.01              511358             757.377        -1.00295e+07         2.68462e+08
    1.03              511180             757.066        -1.00285e+07         2.68459e+08
    1.05              510999              756.75        -1.00274e+07         2.68456e+08
    1.07              510814             756.427        -1.00262e+07         2.68453e+08
    1.09              510626             756.098        -1.00251e+07          2.6845e+08
    1.11              510434             755.764        -1.00239e+07         2.68446e+08
    1.13              510239             755.422        -1.00227e+07         2.68442e+08
    1.15              510041             755.075        -1.00215e+07         2.68438e+08
    1.17              509838             754.721        -1.00203e+07         2.68434e+08
    1.19              509633             754.362         -1.0019e+07          2.6843e+08
    1.21              509424             753.996        -1.00177e+07         2.68425e+08
    1.23              509211             753.624        -1.00164e+07          2.6842e+08
    1.25              508995             753.245        -1.00151e+07         2.68415e+08
    1.27              508775             752.861        -1.00137e+07          2.6841e+08
    1.29              508552              752.47        -1.00123e+07         2.68404e+08
    1.31              508325             752.073        -1.00109e+07         2.68399e+08
    1.33              508095              751.67        -1.00094e+07         2.68393e+08
    1.35              507862             751.261         -1.0008e+07         2.68386e+08
    1.37              507624             750.845        -1.00065e+07          2.6838e+08
    1.39              507384             750.423        -1.00049e+07         2.68373e+08
    1.41              507140             749.995        -1.00034e+07         2.68366e+08
    1.43              506892             749.561        -1.00018e+07         2.68359e+08
    1.45              506641              749.12        -1.00002e+07         2.68351e+08
    1.47              506386             748.673        -9.99852e+06         2.68343e+08
    1.49              506128              748.22        -9.99685e+06         2.68335e+08
    1.51              505866             747.761        -9.99515e+06         2.68326e+08
    1.53              505601             747.295        -9.99342e+06         2.68317e+08
    1.55              505332             746.823        -9.99166e+06         2.68308e+08
    1.57              505060             746.345        -9.98987e+06         2.68299e+08
    1.59              504784             745.861        -9.98805e+06         2.68289e+08
    1.61              504505              745.37         -9.9862e+06         2.68278e+08
    1.63              504222             744.873        -9.98432e+06         2.68268e+08
    1.65              503936              744.37        -9.98241e+06         2.68257e+08
    1.67              503646              743.86        -9.98047e+06         2.68245e+08
    1.69              503353             743.344         -9.9785e+06         2.68233e+08
    1.71              503056             742.822         -9.9765e+06         2.68221e+08
    1.73              502756             742.294        -9.97446e+06         2.68209e+08
    1.75              502452             741.759        -9.97239e+06         2.68195e+08
    1.77              502144             741.218        -9.97029e+06         2.68182e+08
    1.79              501834              740.67        -9.96816e+06         2.68168e+08
    1.81              501519             740.117          -9.966e+06         2.68154e+08
    1.83              501201             739.556         -9.9638e+06         2.68139e+08
    1.85              500880              738.99        -9.96157e+06         2.68123e+08
    1.87              500555             738.417         -9.9593e+06         2.68108e+08
    1.89              500226             737.838          -9.957e+06         2.68091e+08
    1.91              499895             737.253        -9.95467e+06         2.68075e+08
    1.93              499559             736.661         -9.9523e+06         2.68057e+08
    1.95              499220             736.063         -9.9499e+06          2.6804e+08
    1.97              498878             735.458        -9.94746e+06         2.68021e+08
    1.99              498532             734.847        -9.94499e+06         2.68002e+08
    2.01              498182              734.23        -9.94248e+06         2.67983e+08
    2.03              497829             733.607        -9.93994e+06         2.67963e+08
    2.05              497472             732.977        -9.93736e+06         2.67942e+08
    2.07              497112              732.34        -9.93474e+06         2.67921e+08
    2.09              496749             731.698        -9.93209e+06           2.679e+08
    2.11              496382             731.048         -9.9294e+06         2.67877e+08
    2.13              496011             730.393        -9.92667e+06         2.67854e+08
    2.15              495637             729.731         -9.9239e+06         2.67831e+08
    2.17              495259             729.063         -9.9211e+06         2.67807e+08
    2.19              494878             728.388        -9.91825e+06         2.67782e+08
    2.21              494493             727.707        -9.91537e+06         2.67756e+08
    2.23              494105              727.02        -9.91245e+06          2.6773e+08
    2.25              493713             726.326        -9.90949e+06         2.67704e+08
    2.27              493318             725.626        -9.90649e+06         2.67676e+08
    2.29              492919             724.919        -9.90345e+06         2.67648e+08
    2.31              492517             724.206        -9.90037e+06         2.67619e+08
    2.33              492111             723.487        -9.89725e+06         2.67589e+08
    2.35              491702             722.761        -9.89409e+06         2.67559e+08
    2.37              491289             722.029        -9.89089e+06         2.67528e+08
    2.39              490873              721.29        -9.88764e+06         2.67496e+08
    2.41              490453             720.545        -9.88436e+06         2.67464e+08
    2.43              490029             719.793        -9.88103e+06          2.6743e+08
    2.45              489602             719.036        -9.87766e+06         2.67396e+08
    2.47              489172             718.271        -9.87424e+06         2.67361e+08
    2.49              488738             717.501        -9.87078e+06         2.67326e+08
    2.51              488301             716.723        -9.86728e+06         2.67289e+08
    2.53              487860              715.94        -9.86374e+06         2.67252e+08
    2.55              487415              715.15        -9.86015e+06         2.67214e+08
    2.57              486967             714.353        -9.85652e+06         2.67174e+08
    2.59              486516             713.551        -9.85284e+06         2.67135e+08
    2.61              486061             712.741        -9.84912e+06         2.67094e+08
    2.63              485602             711.926        -9.84535e+06         2.67052e+08
    2.65              485140             711.104        -9.84153e+06         2.67009e+08
    2.67              484675             710.275        -9.83767e+06         2.66966e+08
    2.69              484206              709.44        -9.83376e+06         2.66921e+08
    2.71              483733             708.599        -9.82981e+06         2.66876e+08
    2.73              483257             707.751        -9.82581e+06          2.6683e+08
    2.75              482778             706.897        -9.82176e+06         2.66782e+08
    2.77              482295             706.037        -9.81766e+06         2.66734e+08
    2.79              481808              705.17        -9.81352e+06         2.66685e+08
    2.81              481319             704.296        -9.80932e+06         2.66635e+08
    2.83              480825             703.417        -9.80508e+06         2.66584e+08
    2.85              480328              702.53        -9.80079e+06         2.66531e+08
    2.87              479828             701.638        -9.79644e+06         2.66478e+08
    2.89              479324             700.739        -9.79205e+06         2.66424e+08
    2.91              478816             699.833        -9.78761e+06         2.66368e+08
    2.93              478305             698.922        -9.78312e+06         2.66312e+08
    2.95              477791             698.004        -9.77858e+06         2.66254e+08
    2.97              477273             697.079        -9.77398e+06         2.66195e+08
    2.99              476752             696.148        -9.76933e+06         2.66136e+08
    3.01              476227             695.211        -9.76464e+06         2.66075e+08
    3.03              475699             694.267        -9.75989e+06         2.66013e+08
    3.05              475167             693.317        -9.75508e+06          2.6595e+08
    3.07              474631             692.361        -9.75023e+06         2.65885e+08
    3.09              474093             691.398        -9.74532e+06          2.6582e+08
    3.11              473551             690.429        -9.74035e+06         2.65753e+08
    3.13              473005             689.453        -9.73534e+06         2.65685e+08
    3.15              472456             688.472        -9.73027e+06         2.65616e+08
    3.17              471903             687.483        -9.72514e+06         2.65546e+08
    3.19              471347             686.489        -9.71996e+06         2.65474e+08
    3.21              470788             685.488        -9.71472e+06         2.65402e+08
    3.23              470225             684.481        -9.70943e+06         2.65328e+08
    3.25              469658             683.467        -9.70408e+06         2.65252e+08
    3.27              469088             682.448        -9.69868e+06         2.65176e+08
    3.29              468515             681.422        -9.69322e+06         2.65098e+08
    3.31              467938             680.389         -9.6877e+06         2.65019e+08
    3.33              467358             679.351        -9.68212e+06         2.64938e+08
    3.35              466775             678.306        -9.67649e+06         2.64857e+08
    3.37              466188             677.255         -9.6708e+06         2.64773e+08
    3.39              465597             676.197        -9.66505e+06         2.64689e+08
    3.41              465003             675.133        -9.65924e+06         2.64603e+08
    3.43              464406             674.064        -9.65338e+06         2.64516e+08
    3.45              463805             672.987        -9.64745e+06         2.64427e+08
    3.47              463201             671.905        -9.64147e+06         2.64337e+08
    3.49              462594             670.816        -9.63542e+06         2.64245e+08
    3.51              461983             669.722        -9.62931e+06         2.64153e+08
    3.53              461368             668.621        -9.62315e+06         2.64058e+08
    3.55              460751             667.513        -9.61692e+06         2.63962e+08
    3.57              460129               666.4        -9.61063e+06         2.63865e+08
    3.59              459505              665.28        -9.60428e+06         2.63766e+08
    3.61              458877             664.155        -9.59787e+06         2.63666e+08
    3.63              458246             663.023         -9.5914e+06         2.63564e+08
    3.65              457611             661.885        -9.58486e+06         2.63461e+08
    3.67              456973             660.741        -9.57826e+06         2.63356e+08
    3.69              456332             659.591         -9.5716e+06          2.6325e+08
    3.71              455687             658.435        -9.56487e+06         2.63142e+08
    3.73              455039             657.272        -9.55808e+06         2.63033e+08
    3.75              454387             656.104        -9.55123e+06         2.62921e+08
    3.77              453732             654.929        -9.54431e+06         2.62809e+08
    3.79              453074             653.749        -9.53733e+06         2.62695e+08
    3.81              452413             652.562        -9.53028e+06         2.62579e+08
    3.83              451748              651.37        -9.52317e+06         2.62461e+08
    3.85              451080             650.171          -9.516e+06         2.62342e+08
    3.87              450408             648.967        -9.50875e+06         2.62221e+08
    3.89              449734             647.757        -9.50144e+06         2.62099e+08
    3.91              449055              646.54        -9.49407e+06         2.61975e+08
    3.93              448374             645.318        -9.48663e+06         2.61849e+08
    3.95              447689              644.09        -9.47912e+06         2.61722e+08
    3.97              447001             642.856        -9.47154e+06         2.61592e+08
    3.99              446310             641.616         -9.4639e+06         2.61462e+08
    4.01              445615              640.37        -9.45618e+06         2.61329e+08
    4.03              444918             639.118        -9.44841e+06         2.61195e+08
    4.05              444217             637.861        -9.44056e+06         2.61058e+08
    4.07              443512             636.598        -9.43264e+06          2.6092e+08
    4.09              442805             635.328        -9.42466e+06         2.60781e+08
    4.11              442094             634.054         -9.4166e+06         2.60639e+08
    4.13              441380             632.773        -9.40848e+06         2.60496e+08
    4.15              440662             631.487        -9.40029e+06         2.60351e+08
    4.17              439942             630.195        -9.39202e+06         2.60204e+08
    4.19              439218             628.897        -9.38369e+06         2.60055e+08
    4.21              438491             627.594        -9.37529e+06         2.59905e+08
    4.23              437761             626.285        -9.36682e+06         2.59752e+08
    4.25              437027              624.97        -9.35827e+06         2.59598e+08
    4.27              436291              623.65        -9.34966e+06         2.59442e+08
    4.29              435551             622.324        -9.34097e+06         2.59284e+08
    4.31              434808             620.993        -9.33221e+06         2.59124e+08
    4.33              434062             619.656        -9.32338e+06         2.58962e+08
    4.35              433313             618.313        -9.31448e+06         2.58798e+08
    4.37              432560             616.965        -9.30551e+06         2.58633e+08
    4.39              431805             615.612        -9.29646e+06         2.58465e+08
    4.41              431046             614.253        -9.28734e+06         2.58295e+08
    4.43              430284             612.889        -9.27815e+06         2.58124e+08
    4.45              429519             611.519        -9.26889e+06          2.5795e+08
