## w(eV)         sigma(Sm^-1)     kappa(W(mK)^-1)        L12/e(Am^-1)      L22/e^2(Wm^-1)
    0.01              515792             765.112        -1.00551e+07         2.68498e+08
    0.03              515789             765.106         -1.0055e+07         2.68498e+08
    0.05              515782             765.094         -1.0055e+07         2.68498e+08
    0.07              515771             765.076        -1.00549e+07         2.68498e+08
    0.09              515757             765.052        -1.00549e+07         2.68498e+08
    0.11              515740             765.021        -1.00548e+07         2.68498e+08
    0.13              515719             764.985        -1.00546e+07         2.68498e+08
    0.15              515695             764.943        -1.00545e+07         2.68498e+08
    0.17              515667             764.894        -1.00544e+07         2.68498e+08
    0.19              515636              764.84        -1.00542e+07         2.68498e+08
    0.21              515601              764.78         -1.0054e+07         2.68498e+08
    0.23              515562             764.713        -1.00538e+07         2.68498e+08
    0.25              515521              764.64        -1.00535e+07         2.68498e+08
    0.27              515476             764.562        -1.00533e+07         2.68498e+08
    0.29              515427             764.477         -1.0053e+07         2.68497e+08
    0.31              515375             764.386        -1.00527e+07         2.68497e+08
    0.33              515319              764.29        -1.00524e+07         2.68497e+08
    0.35              515260             764.187        -1.00521e+07         2.68497e+08
    0.37              515197             764.078        -1.00517e+07         2.68497e+08
    0.39              515131             763.963        -1.00513e+07         2.68496e+08
    0.41              515062             763.842         -1.0051e+07         2.68496e+08
    0.43              514988             763.715        -1.00505e+07         2.68496e+08
    0.45              514912             763.582        -1.00501e+07         2.68495e+08
    0.47              514832             763.442        -1.00497e+07         2.68495e+08
    0.49              514748             763.297        -1.00492e+07         2.68494e+08
    0.51              514661             763.146        -1.00487e+07         2.68494e+08
    0.53              514571             762.988        -1.00482e+07         2.68493e+08
    0.55              514477             762.825        -1.00476e+07         2.68493e+08
    0.57              514380             762.655        -1.00471e+07         2.68492e+08
    0.59              514279             762.479        -1.00465e+07         2.68491e+08
    0.61              514174             762.298        -1.00459e+07         2.68491e+08
    0.63              514066              762.11        -1.00453e+07          2.6849e+08
    0.65              513955             761.916        -1.00446e+07         2.68489e+08
    0.67              513840             761.716         -1.0044e+07         2.68488e+08
    0.69              513722              761.51        -1.00433e+07         2.68487e+08
    0.71              513600             761.297        -1.00426e+07         2.68486e+08
    0.73              513475             761.079        -1.00419e+07         2.68485e+08
    0.75              513346             760.855        -1.00411e+07         2.68484e+08
    0.77              513214             760.624        -1.00404e+07         2.68482e+08
    0.79              513078             760.387        -1.00396e+07         2.68481e+08
    0.81              512939             760.145        -1.00387e+07         2.68479e+08
    0.83              512796             759.896        -1.00379e+07         2.68478e+08
    0.85              512650             759.641        -1.00371e+07         2.68476e+08
    0.87              512500             759.379        -1.00362e+07         2.68474e+08
    0.89              512347             759.112        -1.00353e+07         2.68472e+08
    0.91              512190             758.839        -1.00343e+07          2.6847e+08
    0.93              512030             758.559        -1.00334e+07         2.68468e+08
    0.95              511866             758.273        -1.00324e+07         2.68465e+08
    0.97              511699             757.982        -1.00314e+07         2.68463e+08
    0.99              511528             757.684        -1.00304e+07          2.6846e+08
    1.01              511354             757.379        -1.00294e+07         2.68457e+08
    1.03              511176             757.069        -1.00283e+07         2.68455e+08
    1.05              510995             756.753        -1.00272e+07         2.68451e+08
    1.07              510810              756.43        -1.00261e+07         2.68448e+08
    1.09              510622             756.101        -1.00249e+07         2.68445e+08
    1.11              510431             755.766        -1.00238e+07         2.68441e+08
    1.13              510235             755.425        -1.00226e+07         2.68437e+08
    1.15              510037             755.078        -1.00214e+07         2.68433e+08
    1.17              509835             754.724        -1.00201e+07         2.68429e+08
    1.19              509629             754.365        -1.00189e+07         2.68425e+08
    1.21              509420             753.999        -1.00176e+07          2.6842e+08
    1.23              509207             753.627        -1.00163e+07         2.68415e+08
    1.25              508991             753.248        -1.00149e+07          2.6841e+08
    1.27              508771             752.864        -1.00135e+07         2.68405e+08
    1.29              508548             752.473        -1.00121e+07           2.684e+08
    1.31              508322             752.076        -1.00107e+07         2.68394e+08
    1.33              508091             751.673        -1.00093e+07         2.68388e+08
    1.35              507858             751.264        -1.00078e+07         2.68382e+08
    1.37              507621             750.848        -1.00063e+07         2.68375e+08
    1.39              507380             750.426        -1.00048e+07         2.68369e+08
    1.41              507136             749.998        -1.00032e+07         2.68361e+08
    1.43              506888             749.564        -1.00016e+07         2.68354e+08
    1.45              506637             749.123              -1e+07         2.68346e+08
    1.47              506382             748.676        -9.99836e+06         2.68339e+08
    1.49              506124             748.223        -9.99669e+06          2.6833e+08
    1.51              505862             747.764        -9.99499e+06         2.68322e+08
    1.53              505597             747.298        -9.99326e+06         2.68313e+08
    1.55              505328             746.827         -9.9915e+06         2.68304e+08
    1.57              505056             746.348        -9.98971e+06         2.68294e+08
    1.59              504780             745.864        -9.98789e+06         2.68284e+08
    1.61              504501             745.373        -9.98604e+06         2.68274e+08
    1.63              504218             744.876        -9.98416e+06         2.68263e+08
    1.65              503932             744.373        -9.98225e+06         2.68252e+08
    1.67              503642             743.863        -9.98031e+06         2.68241e+08
    1.69              503349             743.348        -9.97834e+06         2.68229e+08
    1.71              503052             742.825        -9.97634e+06         2.68217e+08
    1.73              502752             742.297         -9.9743e+06         2.68204e+08
    1.75              502448             741.762        -9.97224e+06         2.68191e+08
    1.77              502141             741.221        -9.97014e+06         2.68177e+08
    1.79              501830             740.674        -9.96801e+06         2.68164e+08
    1.81              501516              740.12        -9.96584e+06         2.68149e+08
    1.83              501198              739.56        -9.96364e+06         2.68134e+08
    1.85              500876             738.993        -9.96141e+06         2.68119e+08
    1.87              500551             738.421        -9.95915e+06         2.68103e+08
    1.89              500223             737.842        -9.95685e+06         2.68087e+08
    1.91              499891             737.256        -9.95452e+06          2.6807e+08
    1.93              499556             736.664        -9.95215e+06         2.68053e+08
    1.95              499217             736.066        -9.94975e+06         2.68035e+08
    1.97              498874             735.462        -9.94731e+06         2.68017e+08
    1.99              498528             734.851        -9.94484e+06         2.67998e+08
    2.01              498178             734.234        -9.94233e+06         2.67979e+08
    2.03              497825              733.61        -9.93979e+06         2.67959e+08
    2.05              497469              732.98        -9.93721e+06         2.67938e+08
    2.07              497109             732.344        -9.93459e+06         2.67917e+08
    2.09              496745             731.701        -9.93194e+06         2.67895e+08
    2.11              496378             731.052        -9.92924e+06         2.67873e+08
    2.13              496007             730.397        -9.92652e+06          2.6785e+08
    2.15              495633             729.735        -9.92375e+06         2.67827e+08
    2.17              495256             729.067        -9.92095e+06         2.67802e+08
    2.19              494874             728.392         -9.9181e+06         2.67778e+08
    2.21              494490             727.711        -9.91522e+06         2.67752e+08
    2.23              494102             727.024         -9.9123e+06         2.67726e+08
    2.25              493710              726.33        -9.90934e+06         2.67699e+08
    2.27              493315              725.63        -9.90634e+06         2.67672e+08
    2.29              492916             724.923         -9.9033e+06         2.67644e+08
    2.31              492513              724.21        -9.90022e+06         2.67615e+08
    2.33              492108             723.491         -9.8971e+06         2.67585e+08
    2.35              491698             722.765        -9.89394e+06         2.67555e+08
    2.37              491286             722.033        -9.89074e+06         2.67524e+08
    2.39              490869             721.294         -9.8875e+06         2.67492e+08
    2.41              490449             720.549        -9.88421e+06          2.6746e+08
    2.43              490026             719.798        -9.88088e+06         2.67426e+08
    2.45              489599              719.04        -9.87751e+06         2.67392e+08
    2.47              489169             718.275         -9.8741e+06         2.67357e+08
    2.49              488735             717.505        -9.87064e+06         2.67322e+08
    2.51              488297             716.728        -9.86714e+06         2.67285e+08
    2.53              487856             715.944         -9.8636e+06         2.67248e+08
    2.55              487412             715.154        -9.86001e+06         2.67209e+08
    2.57              486964             714.358        -9.85637e+06          2.6717e+08
    2.59              486513             713.555         -9.8527e+06          2.6713e+08
    2.61              486058             712.746        -9.84897e+06          2.6709e+08
    2.63              485599              711.93         -9.8452e+06         2.67048e+08
    2.65              485137             711.108        -9.84139e+06         2.67005e+08
    2.67              484672              710.28        -9.83753e+06         2.66962e+08
    2.69              484203             709.445        -9.83362e+06         2.66917e+08
    2.71              483730             708.603        -9.82967e+06         2.66872e+08
    2.73              483254             707.756        -9.82567e+06         2.66826e+08
    2.75              482775             706.902        -9.82162e+06         2.66779e+08
    2.77              482292             706.041        -9.81752e+06          2.6673e+08
    2.79              481805             705.174        -9.81338e+06         2.66681e+08
    2.81              481315             704.301        -9.80918e+06         2.66631e+08
    2.83              480822             703.421        -9.80494e+06          2.6658e+08
    2.85              480325             702.535        -9.80065e+06         2.66527e+08
    2.87              479825             701.642        -9.79631e+06         2.66474e+08
    2.89              479321             700.743        -9.79192e+06          2.6642e+08
    2.91              478813             699.838        -9.78748e+06         2.66364e+08
    2.93              478302             698.926        -9.78298e+06         2.66308e+08
    2.95              477788             698.008        -9.77844e+06          2.6625e+08
    2.97              477270             697.084        -9.77385e+06         2.66192e+08
    2.99              476749             696.153         -9.7692e+06         2.66132e+08
    3.01              476224             695.216         -9.7645e+06         2.66071e+08
    3.03              475696             694.272        -9.75975e+06         2.66009e+08
    3.05              475164             693.322        -9.75495e+06         2.65946e+08
    3.07              474629             692.366        -9.75009e+06         2.65882e+08
    3.09              474090             691.403        -9.74518e+06         2.65816e+08
    3.11              473548             690.434        -9.74022e+06         2.65749e+08
    3.13              473002             689.458        -9.73521e+06         2.65682e+08
    3.15              472453             688.476        -9.73013e+06         2.65613e+08
    3.17              471900             687.488        -9.72501e+06         2.65542e+08
    3.19              471344             686.494        -9.71983e+06         2.65471e+08
    3.21              470785             685.493        -9.71459e+06         2.65398e+08
    3.23              470222             684.486         -9.7093e+06         2.65324e+08
    3.25              469655             683.473        -9.70395e+06         2.65249e+08
    3.27              469086             682.453        -9.69855e+06         2.65172e+08
    3.29              468512             681.427        -9.69309e+06         2.65094e+08
    3.31              467936             680.394        -9.68757e+06         2.65015e+08
    3.33              467355             679.356          -9.682e+06         2.64935e+08
    3.35              466772             678.311        -9.67636e+06         2.64853e+08
    3.37              466185              677.26        -9.67067e+06          2.6477e+08
    3.39              465594             676.202        -9.66493e+06         2.64685e+08
    3.41              465001             675.139        -9.65912e+06         2.64599e+08
    3.43              464403             674.069        -9.65325e+06         2.64512e+08
    3.45              463803             672.993        -9.64733e+06         2.64424e+08
    3.47              463198              671.91        -9.64134e+06         2.64333e+08
    3.49              462591             670.822         -9.6353e+06         2.64242e+08
    3.51              461980             669.727        -9.62919e+06         2.64149e+08
    3.53              461366             668.626        -9.62303e+06         2.64055e+08
    3.55              460748             667.519         -9.6168e+06         2.63959e+08
    3.57              460127             666.405        -9.61051e+06         2.63862e+08
    3.59              459502             665.286        -9.60416e+06         2.63763e+08
    3.61              458874              664.16        -9.59775e+06         2.63663e+08
    3.63              458243             663.028        -9.59128e+06         2.63561e+08
    3.65              457608             661.891        -9.58474e+06         2.63458e+08
    3.67              456970             660.747        -9.57814e+06         2.63353e+08
    3.69              456329             659.596        -9.57148e+06         2.63247e+08
    3.71              455684              658.44        -9.56476e+06         2.63139e+08
    3.73              455036             657.278        -9.55797e+06         2.63029e+08
    3.75              454385             656.109        -9.55111e+06         2.62918e+08
    3.77              453730             654.935         -9.5442e+06         2.62806e+08
    3.79              453072             653.755        -9.53722e+06         2.62691e+08
    3.81              452410             652.568        -9.53017e+06         2.62576e+08
    3.83              451745             651.376        -9.52306e+06         2.62458e+08
    3.85              451077             650.177        -9.51588e+06         2.62339e+08
    3.87              450406             648.973        -9.50864e+06         2.62218e+08
    3.89              449731             647.762        -9.50133e+06         2.62096e+08
    3.91              449053             646.546        -9.49395e+06         2.61972e+08
    3.93              448372             645.324        -9.48651e+06         2.61846e+08
    3.95              447687             644.096          -9.479e+06         2.61719e+08
    3.97              446999             642.862        -9.47143e+06         2.61589e+08
    3.99              446308             641.622        -9.46379e+06         2.61458e+08
    4.01              445613             640.376        -9.45607e+06         2.61326e+08
    4.03              444915             639.124         -9.4483e+06         2.61191e+08
    4.05              444214             637.867        -9.44045e+06         2.61055e+08
    4.07              443510             636.604        -9.43253e+06         2.60917e+08
    4.09              442802             635.334        -9.42455e+06         2.60778e+08
    4.11              442091              634.06        -9.41649e+06         2.60636e+08
    4.13              441377             632.779        -9.40837e+06         2.60493e+08
    4.15              440660             631.493        -9.40018e+06         2.60348e+08
    4.17              439939             630.201        -9.39192e+06         2.60201e+08
    4.19              439216             628.903        -9.38359e+06         2.60052e+08
    4.21              438489               627.6        -9.37518e+06         2.59902e+08
    4.23              437758             626.291        -9.36671e+06         2.59749e+08
    4.25              437025             624.976        -9.35817e+06         2.59595e+08
    4.27              436289             623.656        -9.34955e+06         2.59439e+08
    4.29              435549              622.33        -9.34087e+06         2.59281e+08
    4.31              434806             620.999        -9.33211e+06         2.59121e+08
    4.33              434060             619.662        -9.32328e+06         2.58959e+08
    4.35              433311             618.319        -9.31438e+06         2.58795e+08
    4.37              432558             616.972         -9.3054e+06          2.5863e+08
    4.39              431803             615.618        -9.29636e+06         2.58462e+08
    4.41              431044             614.259        -9.28724e+06         2.58293e+08
    4.43              430282             612.895        -9.27805e+06         2.58121e+08
    4.45              429517             611.526        -9.26879e+06         2.57947e+08
